## SPECTRUM TYPE:
Spectroscopic

## DATE:
20/02/2008

## COMMENTS:

## NUMBER OF SPECTRUM:
1

## ELLIPSOMETRIC CONFIGURATION:
0.00 ø :Modulator
+45.00 øAnalyser

## UNIT:
eV


# SPECTRUM:
1

# START TIME:
10:59:16

# END TIME:
11:11:59

# THETA ANGLE:
0.00 ø

# INCIDENCE ANGLE:
70.00 ø

# ACCUMULATION NUMBER:
1

# ELLIPSOMETRIC CONFIGURATION:
0.00 ø :Modulator
+45.00 øAnalyser

# INTEGRATION TIME:
200 ms

# FIRST POINT:
1.5000 eV

# LAST POINT:
6.5000 eV

# INCREMENT:
0.0100 eV

# NUMBER OF POINTS:
501

# DATA:
eV Hv S0 Psi Delta Is Ic 
1.500 502.0 75.392 45.000 67.437 0.93044 0.38659 
1.510 485.0 69.676 45.000 67.294 0.92414 0.38670 
1.520 604.0 79.601 44.257 66.701 0.91815 0.39539 
1.530 590.0 69.141 41.415 66.883 0.91251 0.38954 
1.540 577.0 71.582 40.488 66.796 0.90773 0.38913 
1.550 542.0 69.116 39.647 66.319 0.89985 0.39466 
1.560 562.0 66.304 38.040 66.439 0.88972 0.38798 
1.570 580.0 68.539 37.543 65.809 0.88145 0.39598 
1.580 596.0 69.502 36.014 66.148 0.86997 0.38464 
1.590 596.0 69.403 35.768 65.289 0.86167 0.39653 
1.600 596.0 73.758 35.062 64.838 0.85119 0.39984 
1.610 580.0 68.953 33.777 64.769 0.83606 0.39398 
1.620 540.0 72.783 33.076 64.162 0.82318 0.39862 
1.630 560.0 66.350 32.236 63.610 0.80834 0.40109 
1.640 560.0 61.768 30.991 63.397 0.78934 0.39532 
1.650 560.0 66.467 29.948 63.099 0.77150 0.39141 
1.660 560.0 67.682 29.108 62.073 0.75104 0.39811 
1.670 560.0 71.994 27.917 61.661 0.72825 0.39277 
1.680 560.0 73.370 26.826 60.863 0.70351 0.39217 
1.690 548.0 70.537 25.800 60.013 0.67879 0.39170 
1.700 548.0 66.930 24.873 58.985 0.65407 0.39323 
1.710 548.0 61.861 23.845 57.739 0.62536 0.39473 
1.720 548.0 63.225 22.813 56.428 0.59555 0.39527 
1.730 548.0 69.980 21.653 55.239 0.56349 0.39106 
1.740 548.0 73.957 20.496 53.736 0.52890 0.38800 
1.750 548.0 70.702 19.338 52.191 0.49372 0.38309 
1.760 548.0 68.946 18.251 49.784 0.45423 0.38408 
1.770 548.0 71.582 17.181 47.307 0.41485 0.38273 
1.780 548.0 74.820 16.060 44.555 0.37303 0.37887 
1.790 537.0 69.892 15.067 41.385 0.33189 0.37665 
1.800 537.0 75.393 14.264 37.327 0.28959 0.37977 
1.810 537.0 78.583 13.283 32.992 0.24352 0.37511 
1.820 527.0 67.613 12.486 28.059 0.19859 0.37257 
1.830 527.0 66.023 11.819 22.186 0.15141 0.37127 
1.840 527.0 67.897 11.263 15.533 0.10259 0.36910 
1.850 527.0 69.027 10.855 8.579 0.05518 0.36576 
1.860 527.0 70.468 10.676 1.022 0.00649 0.36402 
1.870 527.0 71.138 10.690 353.719 -0.03989 0.36238 
1.880 527.0 72.471 10.879 345.709 -0.09150 0.35920 
1.890 527.0 74.478 11.123 339.020 -0.13555 0.35349 
1.900 527.0 77.696 11.848 332.571 -0.18513 0.35670 
1.910 516.0 70.741 12.403 326.771 -0.22991 0.35095 
1.920 516.0 71.715 13.259 321.738 -0.27649 0.35058 
1.930 516.0 72.544 14.197 317.343 -0.32223 0.34973 
1.940 516.0 74.933 15.160 313.498 -0.36621 0.34750 
1.950 507.0 68.253 16.153 310.315 -0.40751 0.34578 
1.960 507.0 71.622 17.223 307.541 -0.44850 0.34466 
1.970 507.0 73.864 18.288 305.345 -0.48605 0.34471 
1.980 507.0 76.712 19.330 303.088 -0.52339 0.34104 
1.990 497.0 68.542 20.429 301.221 -0.55945 0.33909 
2.000 497.0 70.694 21.561 299.543 -0.59467 0.33704 
2.010 497.0 72.597 22.657 298.103 -0.62714 0.33491 
2.020 497.0 73.910 23.726 297.155 -0.65550 0.33624 
2.030 497.0 75.155 24.804 295.870 -0.68531 0.33232 
2.040 497.0 75.490 25.877 295.046 -0.71151 0.33248 
2.050 497.0 75.612 26.937 294.270 -0.73633 0.33200 
2.060 497.0 75.322 27.904 293.569 -0.75815 0.33074 
2.070 483.0 71.093 28.941 292.648 -0.78164 0.32613 
2.080 483.0 73.682 30.023 292.178 -0.80233 0.32707 
2.090 483.0 76.366 30.938 291.507 -0.82052 0.32332 
2.100 483.0 79.539 31.920 291.001 -0.83795 0.32167 
2.110 472.0 69.009 32.825 290.716 -0.85215 0.32227 
2.120 472.0 71.669 33.731 290.340 -0.86603 0.32104 
2.130 472.0 73.793 34.599 290.002 -0.87842 0.31976 
2.140 472.0 75.675 35.409 289.579 -0.88987 0.31650 
2.150 463.0 67.349 36.242 289.276 -0.90017 0.31482 
2.160 463.0 69.182 37.092 289.097 -0.90919 0.31478 
2.170 463.0 71.051 37.899 288.772 -0.91787 0.31196 
2.180 463.0 73.193 38.725 288.623 -0.92500 0.31171 
2.190 463.0 74.930 39.416 288.375 -0.93105 0.30926 
2.200 463.0 76.870 40.017 288.114 -0.93610 0.30621 
2.210 463.0 78.784 40.659 287.988 -0.94022 0.30528 
2.220 453.0 68.969 41.334 287.647 -0.94515 0.30068 
2.230 453.0 70.676 42.144 287.518 -0.94888 0.29952 
2.240 453.0 72.388 42.838 287.392 -0.95157 0.29805 
2.250 453.0 74.407 43.568 287.155 -0.95432 0.29459 
2.260 453.0 76.092 44.725 286.986 -0.95633 0.29213 
2.270 453.0 77.978 45.000 286.868 -0.95753 0.29034 
2.280 444.0 68.620 45.000 286.718 -0.95839 0.28786 
2.290 444.0 70.801 45.000 286.555 -0.95863 0.28496 
2.300 444.0 71.632 44.346 286.320 -0.95946 0.28092 
2.310 444.0 73.047 43.760 286.197 -0.95941 0.27867 
2.320 444.0 74.938 43.050 286.024 -0.95892 0.27541 
2.330 444.0 76.760 42.560 285.847 -0.95851 0.27208 
2.340 444.0 78.143 42.177 285.690 -0.95807 0.26912 
2.350 434.0 67.344 41.532 285.505 -0.95655 0.26537 
2.360 434.0 68.708 41.086 285.308 -0.95553 0.26155 
2.370 434.0 70.143 40.671 285.085 -0.95454 0.25729 
2.380 434.0 72.098 40.135 284.907 -0.95244 0.25356 
2.390 434.0 73.318 39.759 284.687 -0.95118 0.24931 
2.400 434.0 75.422 39.318 284.535 -0.94902 0.24604 
2.410 434.0 77.471 38.959 284.250 -0.94777 0.24070 
2.420 427.0 70.919 38.503 284.096 -0.94505 0.23732 
2.430 427.0 74.382 38.137 283.893 -0.94302 0.23325 
2.440 418.0 69.287 37.729 283.652 -0.94062 0.22847 
2.450 418.0 77.371 37.378 283.414 -0.93849 0.22383 
2.460 407.0 71.151 37.067 283.103 -0.93686 0.21806 
2.470 407.0 74.200 36.750 282.887 -0.93467 0.21384 
2.480 399.0 68.349 37.660 282.814 -0.94327 0.21455 
2.490 399.0 63.948 37.313 282.572 -0.94109 0.20988 
2.500 399.0 61.609 36.976 282.238 -0.93919 0.20371 
2.510 399.0 63.121 36.736 282.086 -0.93743 0.20072 
2.520 399.0 65.668 36.435 281.709 -0.93576 0.19393 
2.530 399.0 64.704 36.162 281.495 -0.93368 0.18987 
2.540 399.0 61.280 35.660 280.969 -0.93002 0.18026 
2.550 399.0 62.376 35.441 280.685 -0.92847 0.17519 
2.560 399.0 65.094 35.189 280.438 -0.92635 0.17065 
2.570 399.0 69.270 34.718 279.856 -0.92246 0.16026 
2.580 399.0 70.306 34.521 279.625 -0.92069 0.15614 
2.590 399.0 66.942 34.257 279.314 -0.91824 0.15060 
2.600 399.0 64.307 33.917 278.848 -0.91508 0.14245 
2.610 399.0 67.799 33.569 278.314 -0.91176 0.13324 
2.620 399.0 75.291 33.280 277.887 -0.90880 0.12590 
2.630 391.0 68.513 33.065 277.576 -0.90648 0.12056 
2.640 391.0 70.068 32.822 277.092 -0.90403 0.11247 
2.650 391.0 75.375 32.532 276.554 -0.90085 0.10350 
2.660 391.0 72.967 32.331 276.159 -0.89858 0.09697 
2.670 391.0 67.391 32.143 275.792 -0.89638 0.09092 
2.680 391.0 65.716 31.930 275.324 -0.89384 0.08329 
2.690 391.0 63.780 31.681 274.774 -0.89075 0.07439 
2.700 391.0 60.860 31.447 274.216 -0.88776 0.06543 
2.710 400.0 70.261 31.187 273.524 -0.88432 0.05446 
2.720 400.0 68.716 31.053 273.168 -0.88246 0.04884 
2.730 400.0 66.772 30.835 272.603 -0.87932 0.03998 
2.740 400.0 68.160 30.597 271.929 -0.87576 0.02949 
2.750 400.0 71.225 30.383 271.316 -0.87241 0.02004 
2.760 400.0 70.850 30.179 270.754 -0.86905 0.01144 
2.770 400.0 66.971 29.980 270.131 -0.86567 0.00198 
2.780 400.0 62.618 29.769 269.442 -0.86192 -0.00839 
2.790 400.0 62.484 29.592 268.862 -0.85865 -0.01706 
2.800 400.0 62.367 29.393 268.118 -0.85477 -0.02808 
2.810 400.0 62.291 29.203 267.436 -0.85093 -0.03810 
2.820 400.0 62.638 29.009 266.725 -0.84683 -0.04846 
2.830 400.0 62.673 28.836 266.026 -0.84296 -0.05857 
2.840 400.0 62.064 28.652 265.323 -0.83875 -0.06861 
2.850 400.0 60.805 28.456 264.460 -0.83391 -0.08089 
2.860 400.0 59.874 28.284 263.759 -0.82960 -0.09072 
2.870 409.0 70.290 28.143 262.880 -0.82541 -0.10310 
2.880 409.0 69.966 27.985 262.140 -0.82096 -0.11334 
2.890 409.0 69.925 27.826 261.290 -0.81611 -0.12502 
2.900 409.0 69.111 27.644 260.438 -0.81060 -0.13655 
2.910 409.0 68.972 27.487 259.594 -0.80543 -0.14791 
2.920 409.0 68.631 27.324 258.706 -0.79982 -0.15974 
2.930 409.0 68.553 27.178 257.673 -0.79393 -0.17349 
2.940 409.0 68.857 27.030 256.798 -0.78824 -0.18491 
2.950 409.0 68.952 26.871 255.782 -0.78166 -0.19805 
2.960 409.0 68.954 26.744 254.891 -0.77594 -0.20949 
2.970 409.0 67.994 26.604 253.881 -0.76933 -0.22233 
2.980 409.0 66.114 26.464 252.910 -0.76265 -0.23447 
2.990 409.0 65.276 26.318 251.690 -0.75456 -0.24970 
3.000 409.0 65.264 26.187 250.655 -0.74729 -0.26236 
3.010 409.0 64.859 26.056 249.441 -0.73896 -0.27715 
3.020 409.0 64.046 25.960 248.397 -0.73185 -0.28981 
3.030 409.0 63.338 25.830 247.231 -0.72322 -0.30355 
3.040 409.0 62.385 25.711 246.118 -0.71482 -0.31650 
3.050 409.0 61.374 25.633 245.026 -0.70713 -0.32934 
3.060 409.0 60.514 25.529 243.579 -0.69654 -0.34608 
3.070 418.0 70.117 25.451 242.347 -0.68743 -0.36018 
3.080 418.0 69.250 25.359 241.091 -0.67758 -0.37418 
3.090 418.0 68.447 25.283 239.776 -0.66737 -0.38879 
3.100 406.0 70.772 25.171 238.298 -0.65500 -0.40457 
3.110 406.0 71.600 25.121 236.919 -0.64414 -0.41961 
3.120 406.0 71.460 25.087 235.672 -0.63422 -0.43310 
3.130 406.0 71.172 25.019 234.074 -0.62067 -0.44972 
3.140 406.0 70.243 24.997 232.521 -0.60785 -0.46607 
3.150 406.0 69.094 24.964 231.056 -0.59516 -0.48099 
3.160 406.0 68.163 24.959 229.493 -0.58175 -0.49699 
3.170 406.0 67.367 24.914 227.839 -0.56640 -0.51289 
3.180 406.0 66.465 24.926 226.201 -0.55171 -0.52906 
3.190 406.0 65.646 24.915 224.495 -0.53553 -0.54506 
3.200 406.0 64.768 24.931 222.805 -0.51947 -0.56088 
3.210 406.0 64.312 24.956 220.983 -0.50174 -0.57754 
3.220 406.0 63.759 25.000 219.114 -0.48327 -0.59437 
3.230 406.0 63.115 25.043 217.213 -0.46388 -0.61084 
3.240 406.0 62.809 25.084 215.188 -0.44252 -0.62759 
3.250 406.0 62.497 25.173 213.137 -0.42088 -0.64470 
3.260 406.0 62.131 25.230 211.228 -0.39982 -0.65945 
3.270 406.0 61.746 25.315 209.035 -0.37521 -0.67591 
3.280 406.0 60.492 25.385 206.730 -0.34840 -0.69183 
3.290 415.0 70.207 25.437 204.566 -0.32251 -0.70555 
3.300 415.0 69.358 25.494 202.383 -0.29588 -0.71847 
3.310 415.0 67.984 25.520 199.922 -0.26496 -0.73105 
3.320 415.0 66.535 25.566 197.753 -0.23741 -0.74152 
3.330 415.0 65.760 25.584 195.263 -0.20507 -0.75152 
3.340 415.0 65.227 25.611 192.670 -0.17099 -0.76060 
3.350 415.0 65.146 25.600 190.133 -0.13711 -0.76718 
3.360 415.0 65.622 25.567 187.735 -0.10480 -0.77152 
3.370 415.0 66.344 25.536 185.369 -0.07278 -0.77451 
3.380 415.0 67.809 25.492 183.015 -0.04087 -0.77589 
3.390 415.0 68.726 25.436 180.626 -0.00847 -0.77570 
3.400 415.0 69.001 25.349 178.335 0.02248 -0.77349 
3.410 415.0 69.292 25.300 176.315 0.04966 -0.77113 
3.420 415.0 69.747 25.241 174.018 0.08039 -0.76722 
3.430 415.0 69.841 25.206 172.047 0.10663 -0.76323 
3.440 415.0 69.707 25.158 169.833 0.13585 -0.75750 
3.450 415.0 69.710 25.116 167.802 0.16241 -0.75130 
3.460 415.0 69.657 25.112 165.698 0.18985 -0.74474 
3.470 415.0 69.819 25.091 163.784 0.21450 -0.73752 
3.480 415.0 69.695 25.095 162.163 0.23529 -0.73124 
3.490 415.0 69.415 25.107 159.958 0.26334 -0.72190 
3.500 415.0 69.726 25.138 157.950 0.28874 -0.71287 
3.510 415.0 69.484 25.154 156.129 0.31140 -0.70366 
3.520 415.0 69.478 25.212 154.298 0.33428 -0.69451 
3.530 415.0 69.605 25.275 152.569 0.35573 -0.68535 
3.540 415.0 69.508 25.342 150.955 0.37561 -0.67636 
3.550 415.0 69.611 25.445 149.126 0.39817 -0.66598 
3.560 415.0 70.134 25.555 147.405 0.41929 -0.65576 
3.570 415.0 70.209 25.636 145.698 0.43964 -0.64444 
3.580 415.0 70.841 25.746 144.099 0.45885 -0.63386 
3.590 415.0 70.812 25.883 142.439 0.47884 -0.62266 
3.600 415.0 71.888 26.023 140.811 0.49824 -0.61114 
3.610 415.0 72.378 26.158 139.285 0.51623 -0.59985 
3.620 415.0 73.278 26.333 137.661 0.53552 -0.58773 
3.630 415.0 73.999 26.472 136.152 0.55285 -0.57554 
3.640 415.0 74.804 26.632 134.704 0.56960 -0.56374 
3.650 415.0 75.860 26.785 133.099 0.58749 -0.54974 
3.660 415.0 77.225 26.980 131.666 0.60405 -0.53756 
3.670 415.0 78.308 27.170 130.213 0.62046 -0.52458 
3.680 407.0 69.253 27.321 128.683 0.63663 -0.50973 
3.690 407.0 70.538 27.525 127.297 0.65205 -0.49666 
3.700 407.0 72.127 27.733 125.997 0.66649 -0.48418 
3.710 407.0 73.221 27.943 124.501 0.68229 -0.46895 
3.720 407.0 74.954 28.123 123.327 0.69470 -0.45680 
3.730 407.0 76.221 28.317 121.934 0.70877 -0.44176 
3.740 407.0 77.911 28.542 120.649 0.72221 -0.42794 
3.750 407.0 78.616 28.743 119.403 0.73464 -0.41400 
3.760 400.0 69.893 28.948 118.018 0.74780 -0.39792 
3.770 400.0 70.720 29.148 116.731 0.75985 -0.38268 
3.780 400.0 71.387 29.364 115.611 0.77073 -0.36946 
3.790 400.0 71.637 29.566 114.373 0.78184 -0.35422 
3.800 400.0 71.667 29.792 113.308 0.79200 -0.34122 
3.810 400.0 71.297 30.002 112.150 0.80215 -0.32653 
3.820 400.0 71.030 30.187 111.069 0.81116 -0.31249 
3.830 400.0 70.336 30.429 109.893 0.82130 -0.29720 
3.840 400.0 69.227 30.657 108.854 0.83019 -0.28350 
3.850 400.0 67.912 30.880 107.740 0.83908 -0.26843 
3.860 400.0 66.360 31.109 106.734 0.84726 -0.25473 
3.870 400.0 65.599 31.301 105.758 0.85446 -0.24111 
3.880 400.0 63.735 31.501 104.632 0.86212 -0.22508 
3.890 400.0 61.820 31.722 103.666 0.86918 -0.21133 
3.900 400.0 60.856 31.942 102.664 0.87606 -0.19686 
3.910 400.0 59.583 32.131 101.744 0.88194 -0.18334 
3.920 408.0 67.710 32.424 100.909 0.88882 -0.17131 
3.930 408.0 66.312 32.656 100.005 0.89477 -0.15785 
3.940 408.0 64.875 32.863 99.105 0.90010 -0.14425 
3.950 408.0 64.016 33.076 98.183 0.90531 -0.13018 
3.960 408.0 62.779 33.339 97.309 0.91083 -0.11682 
3.970 408.0 61.295 33.559 96.432 0.91551 -0.10320 
3.980 408.0 60.188 33.793 95.594 0.92005 -0.09012 
3.990 417.0 69.617 34.069 94.899 0.92469 -0.07925 
4.000 417.0 68.431 34.300 94.186 0.92857 -0.06796 
4.010 417.0 66.896 34.516 93.371 0.93217 -0.05490 
4.020 417.0 66.305 34.768 92.672 0.93587 -0.04367 
4.030 417.0 65.046 34.976 91.913 0.93888 -0.03136 
4.040 417.0 63.873 35.223 91.279 0.94209 -0.02103 
4.050 417.0 62.767 35.435 90.623 0.94472 -0.01027 
4.060 417.0 61.615 35.727 89.918 0.94806 0.00136 
4.070 417.0 60.835 35.949 89.289 0.95043 0.01179 
4.080 417.0 60.107 36.214 88.611 0.95306 0.02311 
4.090 417.0 58.801 36.419 88.048 0.95492 0.03254 
4.100 428.0 70.289 36.731 87.535 0.95775 0.04124 
4.110 428.0 69.066 36.965 86.863 0.95948 0.05259 
4.120 428.0 67.934 37.166 86.424 0.96096 0.06005 
4.130 428.0 67.049 37.423 85.873 0.96272 0.06946 
4.140 428.0 65.581 37.690 85.408 0.96451 0.07747 
4.150 428.0 64.594 37.855 84.893 0.96521 0.08626 
4.160 428.0 63.765 38.117 84.463 0.96675 0.09371 
4.170 428.0 62.997 38.394 84.134 0.96843 0.09950 
4.180 428.0 62.163 38.613 83.726 0.96941 0.10657 
4.190 428.0 61.716 38.845 83.334 0.97040 0.11341 
4.200 428.0 61.786 39.077 83.010 0.97143 0.11911 
4.210 428.0 60.946 39.352 82.748 0.97278 0.12378 
4.220 428.0 60.748 39.530 82.532 0.97350 0.12760 
4.230 428.0 60.153 39.728 82.377 0.97443 0.13041 
4.240 437.0 69.578 39.952 82.114 0.97520 0.13508 
4.250 437.0 69.012 40.097 82.021 0.97585 0.13678 
4.260 437.0 68.302 40.204 81.868 0.97610 0.13947 
4.270 437.0 67.357 40.296 81.967 0.97687 0.13787 
4.280 437.0 68.592 45.000 81.552 0.99161 0.14728 
4.290 437.0 70.595 45.000 81.737 0.99183 0.14404 
4.300 437.0 72.785 45.000 82.100 0.99223 0.13769 
4.310 437.0 73.823 45.000 82.313 0.99267 0.13398 
4.320 437.0 75.236 45.000 82.640 0.99318 0.12829 
4.330 437.0 76.645 43.748 83.396 0.99242 0.11489 
4.340 437.0 77.241 42.762 83.919 0.99134 0.10562 
4.350 437.0 77.817 41.635 84.874 0.98914 0.08874 
4.360 437.0 79.074 40.819 85.768 0.98667 0.07301 
4.370 437.0 78.522 40.423 86.643 0.98557 0.05781 
4.380 437.0 78.467 39.669 87.806 0.98202 0.03761 
4.390 437.0 77.269 38.712 89.360 0.97595 0.01090 
4.400 437.0 76.428 37.816 90.789 0.96863 -0.01334 
4.410 437.0 75.078 37.127 92.441 0.96160 -0.04099 
4.420 437.0 73.235 36.175 94.457 0.95004 -0.07406 
4.430 437.0 71.377 35.234 96.596 0.93622 -0.10825 
4.440 437.0 69.527 34.202 98.778 0.91892 -0.14189 
4.450 437.0 66.513 32.713 102.062 0.88935 -0.19005 
4.460 437.0 63.772 31.487 105.233 0.85951 -0.23405 
4.470 437.0 60.699 30.148 108.595 0.82326 -0.27698 
4.480 448.0 69.957 28.834 112.577 0.78021 -0.32440 
4.490 448.0 66.752 27.399 117.053 0.72772 -0.37164 
4.500 448.0 62.256 25.598 123.137 0.65255 -0.42600 
4.510 448.0 59.060 24.143 128.587 0.58350 -0.46558 
4.520 461.0 69.445 22.570 135.648 0.49551 -0.50686 
4.530 461.0 66.452 21.235 142.820 0.40803 -0.53795 
4.540 461.0 63.927 19.984 151.065 0.31079 -0.56218 
4.550 461.0 61.895 19.137 158.518 0.22683 -0.57639 
4.560 461.0 60.454 18.374 168.453 0.11976 -0.58617 
4.570 471.0 69.844 17.876 179.558 0.00451 -0.58427 
4.580 471.0 69.158 17.850 190.730 -0.10865 -0.57333 
4.590 471.0 69.637 18.145 198.473 -0.18754 -0.56137 
4.600 471.0 70.100 18.807 207.548 -0.28228 -0.54114 
4.610 471.0 71.913 19.756 215.524 -0.36968 -0.51781 
4.620 471.0 73.686 20.935 222.743 -0.45300 -0.49018 
4.630 471.0 75.967 22.306 228.925 -0.52942 -0.46145 
4.640 471.0 78.313 23.579 233.467 -0.58915 -0.43648 
4.650 463.0 71.297 25.177 238.550 -0.65688 -0.40174 
4.660 463.0 74.019 26.625 242.553 -0.71105 -0.36932 
4.670 463.0 76.878 28.181 246.269 -0.76216 -0.33505 
4.680 455.0 69.924 29.404 249.124 -0.79929 -0.30483 
4.690 455.0 71.800 30.731 251.850 -0.83478 -0.27366 
4.700 455.0 73.730 31.840 253.902 -0.86119 -0.24853 
4.710 455.0 76.038 33.083 256.085 -0.88788 -0.21997 
4.720 455.0 78.238 34.300 257.932 -0.91048 -0.19466 
4.730 447.0 70.047 35.223 259.293 -0.92592 -0.17507 
4.740 447.0 71.274 36.225 260.659 -0.94081 -0.15476 
4.750 447.0 72.766 36.993 261.582 -0.95084 -0.14072 
4.760 447.0 74.598 37.734 262.322 -0.95933 -0.12933 
4.770 447.0 76.131 38.304 262.943 -0.96544 -0.11952 
4.780 447.0 76.819 38.807 263.497 -0.97044 -0.11063 
4.790 447.0 78.096 39.276 263.915 -0.97458 -0.10389 
4.800 447.0 79.163 39.615 264.175 -0.97731 -0.09970 
4.810 439.0 69.612 39.897 264.472 -0.97960 -0.09481 
4.820 439.0 70.534 39.964 264.609 -0.98023 -0.09251 
4.830 439.0 71.671 39.969 264.649 -0.98033 -0.09183 
4.840 439.0 71.809 39.699 264.430 -0.97829 -0.09540 
4.850 439.0 71.748 39.605 264.363 -0.97757 -0.09649 
4.860 439.0 71.443 39.302 263.970 -0.97486 -0.10297 
4.870 439.0 71.437 38.991 263.714 -0.97220 -0.10709 
4.880 439.0 71.223 38.740 263.246 -0.96944 -0.11480 
4.890 439.0 71.373 38.280 262.454 -0.96419 -0.12773 
4.900 439.0 70.053 37.988 262.009 -0.96077 -0.13487 
4.910 439.0 70.235 37.621 261.252 -0.95576 -0.14706 
4.920 439.0 69.504 37.232 260.397 -0.94996 -0.16073 
4.930 439.0 68.957 36.876 259.501 -0.94399 -0.17495 
4.940 439.0 68.040 36.516 258.459 -0.93713 -0.19136 
4.950 439.0 67.093 36.151 257.465 -0.92996 -0.20676 
4.960 439.0 66.387 35.757 256.246 -0.92120 -0.22548 
4.970 439.0 64.990 35.426 255.013 -0.91254 -0.24429 
4.980 439.0 64.166 35.055 253.720 -0.90265 -0.26360 
4.990 439.0 62.843 34.729 252.343 -0.89230 -0.28404 
5.000 439.0 61.783 34.362 250.794 -0.87997 -0.30655 
5.010 439.0 60.241 34.002 249.077 -0.86607 -0.33112 
5.020 439.0 59.249 33.609 247.338 -0.85080 -0.35524 
5.030 452.0 72.285 33.284 245.430 -0.83446 -0.38152 
5.040 452.0 70.341 32.977 243.518 -0.81739 -0.40722 
5.050 452.0 68.914 32.592 241.482 -0.79753 -0.43334 
5.060 452.0 66.919 32.269 239.221 -0.77570 -0.46202 
5.070 452.0 65.469 32.013 237.396 -0.75732 -0.48440 
5.080 452.0 63.396 31.703 235.030 -0.73275 -0.51251 
5.090 452.0 61.815 31.365 232.682 -0.70689 -0.53885 
5.100 461.0 70.000 31.079 229.778 -0.67516 -0.57100 
5.110 461.0 68.091 30.752 227.050 -0.64327 -0.59882 
5.120 461.0 66.189 30.511 224.668 -0.61500 -0.62215 
5.130 461.0 64.618 30.169 221.736 -0.57847 -0.64844 
5.140 461.0 62.771 29.919 218.769 -0.54140 -0.67411 
5.150 461.0 61.932 29.669 216.310 -0.50936 -0.69316 
5.160 471.0 70.394 29.408 212.743 -0.46271 -0.71957 
5.170 471.0 68.519 29.115 209.296 -0.41601 -0.74144 
5.180 471.0 67.041 28.945 206.591 -0.37914 -0.75743 
5.190 471.0 66.058 28.748 202.824 -0.32714 -0.77733 
5.200 471.0 64.622 28.550 199.674 -0.28268 -0.79061 
5.210 471.0 63.637 28.350 195.897 -0.22893 -0.80384 
5.220 471.0 62.555 28.235 192.803 -0.18473 -0.81288 
5.230 471.0 61.724 27.995 188.262 -0.11911 -0.82035 
5.240 471.0 61.242 27.895 184.245 -0.06122 -0.82471 
5.250 471.0 60.456 27.747 180.847 -0.01219 -0.82398 
5.260 471.0 60.047 27.609 176.215 0.05422 -0.81953 
5.270 481.0 70.239 27.461 172.232 0.11062 -0.81086 
5.280 481.0 70.078 27.416 168.186 0.16736 -0.80014 
5.290 481.0 69.769 27.313 163.621 0.22993 -0.78230 
5.300 481.0 70.239 27.241 159.333 0.28727 -0.76155 
5.310 481.0 70.223 27.247 153.938 0.35765 -0.73129 
5.320 481.0 70.098 27.193 149.866 0.40812 -0.70308 
5.330 481.0 70.823 27.203 145.583 0.45961 -0.67082 
5.340 481.0 70.946 27.207 140.177 0.52082 -0.62458 
5.350 481.0 71.241 27.277 135.727 0.56869 -0.58332 
5.360 481.0 70.956 27.337 131.184 0.61403 -0.53724 
5.370 481.0 71.222 27.378 125.835 0.66210 -0.47814 
5.380 481.0 71.306 27.459 121.595 0.69703 -0.42872 
5.390 481.0 71.136 27.514 117.132 0.72926 -0.37370 
5.400 481.0 70.033 27.625 112.692 0.75804 -0.31697 
5.410 481.0 69.331 27.663 107.433 0.78463 -0.24638 
5.420 481.0 68.136 27.714 103.307 0.80131 -0.18952 
5.430 481.0 66.494 27.790 98.973 0.81483 -0.12867 
5.440 481.0 64.308 27.799 94.758 0.82225 -0.06844 
5.450 481.0 62.163 27.779 90.814 0.82461 -0.01171 
5.460 491.0 68.869 27.690 85.352 0.82023 0.06669 
5.470 491.0 65.379 27.607 81.119 0.81144 0.12680 
5.480 491.0 61.996 27.360 76.880 0.79503 0.18530 
5.490 502.0 68.905 27.084 72.495 0.77319 0.24386 
5.500 502.0 64.402 26.693 68.343 0.74602 0.29622 
5.510 502.0 60.157 26.206 63.939 0.71186 0.34814 
5.520 516.0 69.150 25.724 59.218 0.67187 0.40022 
5.530 516.0 65.043 25.011 54.933 0.62719 0.44026 
5.540 527.0 71.301 24.326 50.553 0.57970 0.47697 
5.550 527.0 67.097 23.795 46.290 0.53370 0.51020 
5.560 527.0 63.378 22.900 42.580 0.48508 0.52789 
5.570 527.0 60.515 22.160 39.243 0.44199 0.54109 
5.580 527.0 57.600 21.310 36.428 0.40209 0.54482 
5.590 542.0 68.521 20.609 33.922 0.36772 0.54678 
5.600 542.0 66.296 19.783 32.020 0.33774 0.54007 
5.610 542.0 64.320 19.016 30.597 0.31359 0.53032 
5.620 542.0 62.417 18.478 29.162 0.29296 0.52501 
5.630 542.0 60.259 17.764 28.162 0.27426 0.51231 
5.640 553.0 68.377 17.240 27.179 0.25859 0.50360 
5.650 553.0 66.687 16.564 26.866 0.24698 0.48754 
5.660 553.0 65.078 16.066 26.067 0.23372 0.47777 
5.670 553.0 63.680 15.809 25.969 0.22956 0.47131 
5.680 553.0 62.562 15.326 25.383 0.21854 0.46059 
5.690 553.0 60.836 15.002 25.033 0.21159 0.45309 
5.700 553.0 59.266 14.615 24.817 0.20496 0.44324 
5.710 565.0 67.940 14.223 24.696 0.19902 0.43277 
5.720 565.0 66.540 13.988 24.729 0.19624 0.42608 
5.730 565.0 64.932 13.652 25.018 0.19399 0.41566 
5.740 565.0 63.062 13.414 24.939 0.19031 0.40924 
5.750 565.0 61.657 13.156 25.295 0.18940 0.40077 
5.760 565.0 60.915 12.912 25.857 0.18998 0.39200 
5.770 577.0 69.952 12.660 25.976 0.18733 0.38448 
5.780 577.0 68.189 12.556 26.412 0.18877 0.38008 
5.790 577.0 66.739 12.273 26.801 0.18731 0.37079 
5.800 577.0 65.946 12.216 27.183 0.18895 0.36793 
5.810 577.0 63.762 11.962 27.842 0.18939 0.35857 
5.820 577.0 62.302 11.811 28.153 0.18906 0.35329 
5.830 577.0 61.066 11.760 28.672 0.19147 0.35013 
5.840 577.0 59.097 11.570 29.295 0.19228 0.34271 
5.850 592.0 70.543 11.431 29.777 0.19295 0.33722 
5.860 592.0 69.001 11.225 30.880 0.19600 0.32776 
5.870 592.0 67.406 11.274 31.105 0.19810 0.32833 
5.880 592.0 66.081 11.174 31.474 0.19853 0.32430 
5.890 592.0 64.547 10.902 32.253 0.19822 0.31413 
5.900 592.0 63.494 10.886 32.410 0.19879 0.31313 
5.910 592.0 61.904 10.745 32.766 0.19826 0.30804 
5.920 604.0 70.142 10.594 33.661 0.20033 0.30083 
5.930 604.0 68.676 10.424 34.218 0.20013 0.29429 
5.940 604.0 67.738 10.217 35.401 0.20225 0.28458 
5.950 604.0 65.945 10.121 36.623 0.20639 0.27767 
5.960 604.0 64.286 10.104 37.147 0.20860 0.27535 
5.970 604.0 63.612 9.884 38.634 0.21116 0.26420 
5.980 604.0 61.988 9.824 39.949 0.21591 0.25777 
5.990 616.0 70.807 9.709 41.192 0.21896 0.25019 
6.000 616.0 68.962 9.663 42.364 0.22301 0.24453 
6.010 616.0 67.696 9.613 44.315 0.23004 0.23561 
6.020 616.0 66.836 9.561 46.075 0.23593 0.22724 
6.030 616.0 65.093 9.707 46.669 0.24178 0.22809 
6.040 616.0 63.422 9.571 48.567 0.24584 0.21699 
6.050 616.0 62.600 9.762 49.653 0.25471 0.21637 
6.060 616.0 61.427 9.761 52.499 0.26511 0.20343 
6.070 616.0 60.669 10.002 52.827 0.27257 0.20669 
6.080 629.0 69.350 9.964 54.500 0.27748 0.19792 
6.090 629.0 68.023 10.226 56.498 0.29137 0.19287 
6.100 629.0 66.791 10.210 57.823 0.29531 0.18580 
6.110 629.0 65.254 10.584 57.966 0.30611 0.19153 
6.120 629.0 64.479 10.652 60.111 0.31499 0.18105 
6.130 629.0 63.263 10.791 61.138 0.32213 0.17755 
6.140 629.0 62.678 11.140 62.343 0.33581 0.17598 
6.150 641.0 70.168 11.245 63.335 0.34183 0.17166 
6.160 641.0 68.987 11.493 63.933 0.35078 0.17159 
6.170 641.0 68.292 11.799 64.373 0.36094 0.17314 
6.180 641.0 67.253 12.014 65.153 0.36950 0.17110 
6.190 641.0 66.455 12.405 65.815 0.38277 0.17190 
6.200 641.0 65.410 12.599 66.057 0.38911 0.17278 
6.210 641.0 64.954 12.939 66.158 0.39923 0.17643 
6.220 641.0 63.631 13.158 67.133 0.40848 0.17227 
6.230 641.0 62.748 13.460 67.174 0.41729 0.17563 
6.240 641.0 61.649 13.719 66.834 0.42364 0.18128 
6.250 641.0 60.744 13.996 67.341 0.43313 0.18082 
6.260 641.0 60.015 14.212 67.149 0.43865 0.18485 
6.270 641.0 58.834 14.588 67.231 0.44952 0.18867 
6.280 641.0 58.425 14.808 67.252 0.45575 0.19110 
6.290 655.0 67.473 15.142 67.125 0.46462 0.19602 
6.300 655.0 66.036 15.442 67.041 0.47264 0.20022 
6.310 655.0 64.698 15.736 66.685 0.47946 0.20664 
6.320 655.0 63.567 15.954 66.691 0.48543 0.20915 
6.330 655.0 62.225 16.212 66.392 0.49130 0.21472 
6.340 655.0 60.927 16.428 66.523 0.49761 0.21613 
6.350 655.0 59.042 16.597 66.014 0.50019 0.22255 
6.360 670.0 68.837 16.919 66.075 0.50900 0.22582 
6.370 670.0 67.423 17.199 65.500 0.51407 0.23428 
6.380 670.0 65.512 17.426 65.339 0.51935 0.23845 
6.390 670.0 63.508 17.555 65.257 0.52234 0.24072 
6.400 670.0 61.492 17.703 64.890 0.52462 0.24586 
6.410 670.0 59.676 18.112 64.188 0.53199 0.25732 
6.420 687.0 69.386 18.170 63.464 0.53016 0.26474 
6.430 687.0 67.165 18.407 63.090 0.53435 0.27120 
6.440 687.0 64.722 18.561 62.968 0.53758 0.27430 
6.450 687.0 62.642 18.695 62.390 0.53809 0.28143 
6.460 687.0 59.967 18.953 62.299 0.54396 0.28560 
6.470 687.0 57.671 19.110 61.817 0.54533 0.29219 
6.480 706.0 67.803 19.139 61.771 0.54581 0.29302 
6.490 706.0 65.256 19.247 61.046 0.54465 0.30133 
6.500 706.0 62.167 19.459 60.380 0.54611 0.31049 

# MINIMA:
1.500 391.0 57.600 9.561 1.022 -0.98033 -0.82471 

# MAXIMA:
6.500 706.0 79.601 45.000 353.719 0.99318 0.54678 

# PEAKS:

# END SPECTRUM

